File: N2-Isotherm_Cmicro.dat
Relative Pressure (p/p°)	Quantity Adsorbed (cm³/g STP)
0.0102279	230.294
0.0209297	240.219
0.0288133	244.421
0.0434234	249.423
0.0541385	251.915
0.0605552	253.077
0.0705461	254.609
0.0808539	255.932
0.0912579	257.054
0.101362	258
0.147701	261.322
0.203587	264.227
0.254282	266.322
0.304362	268.008
0.353378	269.315
0.400901	270.274
0.451294	271.025
0.501163	271.579
0.55108	272.007
0.601291	272.36
0.651554	272.616
0.702108	272.847
0.752333	273.043
0.802363	273.214
0.852539	273.376
0.902586	273.585
0.952579	274.05
0.990889	275.877
0.995887	277.246
0.998574	278.742
0.998574	278.742
0.980344	275.52
0.933103	274.157
0.881878	273.797
0.849612	273.66
0.79785	273.52
0.748084	273.369
0.698393	273.224
0.648486	273.033
0.598557	272.81
0.548206	272.511
0.49829	272.114
0.448865	271.248
0.398179	270.275
0.348929	269.178
0.299146	267.855
0.249399	266.18
0.199296	264.216
0.155701	262.039
0.100392	258.292