File: N2-Isotherm_Cmeso.dat
Relative Pressure (p/p°)	Quantity Adsorbed (cm³/g STP)
0.0103169	72.4797
0.0215706	82.8096
0.0320079	87.4248
0.0439661	91.3233
0.0495167	93.0898
0.0603391	95.8179
0.0695722	97.9926
0.0800623	100.195
0.0898386	102.205
0.100084	104.189
0.14785	112.036
0.20034	120.212
0.250809	128.296
0.301162	137.081
0.350914	147.382
0.400601	160.662
0.449869	179.43
0.500383	206.866
0.556226	233.666
0.605259	244.58
0.647431	250.121
0.700167	256.521
0.751605	263.707
0.802388	271.867
0.852734	280.581
0.902548	289.283
0.952252	299.001
0.987825	316.856
0.99482	333.434
0.996571	358.281
0.996571	358.281
0.98817	335.577
0.944959	309.293
0.886213	299.898
0.834798	293.652
0.799653	288.856
0.74783	281.68
0.69804	275.278
0.648248	269.39
0.598223	263.608
0.548613	257.166
0.50157	243.663
0.442837	192.556
0.388848	164.484
0.353252	155.205
0.304111	145.257
0.249662	136.264
0.200018	128.819
0.150201	121.56
0.100224	113.882