File: N2-Isotherm_Chier.dat
Relative Pressure (p/p°)	Quantity Adsorbed (cm³/g STP)
0.00995126	139.242
0.0193126	148.598
0.0315081	156.034
0.0388054	159.568
0.0499033	163.948
0.0598582	167.381
0.0695701	170.371
0.0799963	173.462
0.0900174	176.22
0.100076	178.8
0.147189	190.271
0.200987	203.067
0.251186	215.37
0.301132	228.861
0.351118	244.527
0.40061	263.378
0.450863	286.482
0.502376	311.219
0.553703	330.252
0.60218	341.222
0.650733	348.685
0.701015	355.958
0.751786	364.392
0.802391	374.076
0.852649	384.478
0.902788	395.05
0.952178	407.377
0.987148	433.112
0.994796	458.985
0.996784	495.068
0.996784	495.068
0.989924	460.305
0.947256	418.698
0.886667	406.227
0.834788	398.007
0.799678	391.894
0.747859	383.024
0.69805	375.353
0.648566	368.358
0.598179	361.514
0.548744	354.045
0.500764	339.348
0.451491	307.908
0.39664	263.86
0.342421	243.106
0.287293	226.68
0.250668	217.052
0.199553	204.941
0.150218	193.643
0.100172	181.905